{
  "HAPI": "2.0",
  "resourceURL": "https://cdaweb.gsfc.nasa.gov/misc/NotesW.html#WI_L2_WAV_RAD2",
  "contact": "Karine Issautier (Karine.Issautier@@obspm.fr) & Keith Goetz (goetz@@umn.edu) @ LESIA, Observatoire de Paris-PSL, CNRS and University of Minnesota, respectively.",
  "parameters": [
    {
      "name": "Time",
      "length": 30,
      "units": "UTC",
      "type": "isotime",
      "fill": null
    },
    {
      "bins": [
        {
          "name": "FREQUENCY",
          "centers": [
            1080000.0,
            1120000.0,
            1180000.0,
            1220000.0,
            1280000.0,
            1330000.0,
            1380000.0,
            1430000.0,
            1480000.0,
            1530000.0,
            1580000.0,
            1630000.0,
            1680000.0,
            1730000.0,
            1780000.0,
            1830000.0,
            1880000.0,
            1930000.0,
            1980000.0,
            2030000.0,
            2080000.0,
            2120000.0,
            2180000.0,
            2220000.0,
            2280000.0,
            2320000.0,
            2380000.0,
            2420000.0,
            2480000.0,
            2520000.0,
            2580000.0,
            2630000.0,
            2680000.0,
            2730000.0,
            2780000.0,
            2830000.0,
            2880000.0,
            2930000.0,
            2980000.0,
            3030000.0,
            3080000.0,
            3130000.0,
            3180000.0,
            3230000.0,
            3280000.0,
            3330000.0,
            3380000.0,
            3430000.0,
            3480000.0,
            3530000.0,
            3580000.0,
            3630000.0,
            3680000.0,
            3730000.0,
            3780000.0,
            3830000.0,
            3880000.0,
            3930000.0,
            3980000.0,
            4030000.0,
            4080000.0,
            4120000.0,
            4180000.0,
            4220000.0,
            4280000.0,
            4320000.0,
            4380000.0,
            4420000.0,
            4480000.0,
            4520000.0,
            4580000.0,
            4620000.0,
            4680000.0,
            4720000.0,
            4780000.0,
            4820000.0,
            4880000.0,
            4920000.0,
            4980000.0,
            5020000.0,
            5080000.0,
            5120000.0,
            5180000.0,
            5230000.0,
            5280000.0,
            5330000.0,
            5380000.0,
            5430000.0,
            5480000.0,
            5530000.0,
            5580000.0,
            5630000.0,
            5680000.0,
            5730000.0,
            5780000.0,
            5830000.0,
            5880000.0,
            5930000.0,
            5980000.0,
            6030000.0,
            6080000.0,
            6130000.0,
            6180000.0,
            6230000.0,
            6280000.0,
            6330000.0,
            6380000.0,
            6430000.0,
            6480000.0,
            6530000.0,
            6580000.0,
            6630000.0,
            6680000.0,
            6730000.0,
            6780000.0,
            6830000.0,
            6880000.0,
            6930000.0,
            6980000.0,
            7030000.0,
            7080000.0,
            7130000.0,
            7180000.0,
            7230000.0,
            7280000.0,
            7330000.0,
            7380000.0,
            7430000.0,
            7480000.0,
            7530000.0,
            7580000.0,
            7630000.0,
            7680000.0,
            7730000.0,
            7780000.0,
            7830000.0,
            7880000.0,
            7930000.0,
            7980000.0,
            8030000.0,
            8080000.0,
            8130000.0,
            8180000.0,
            8220000.0,
            8280000.0,
            8320000.0,
            8380000.0,
            8420000.0,
            8480000.0,
            8520000.0,
            8580000.0,
            8620000.0,
            8680000.0,
            8720000.0,
            8780000.0,
            8820000.0,
            8880000.0,
            8920000.0,
            8980000.0,
            9020000.0,
            9080000.0,
            9120000.0,
            9180000.0,
            9220000.0,
            9280000.0,
            9320000.0,
            9380000.0,
            9420000.0,
            9480000.0,
            9520000.0,
            9580000.0,
            9620000.0,
            9680000.0,
            9720000.0,
            9780000.0,
            9820000.0,
            9880000.0,
            9920000.0,
            9980000.0,
            10000000.0,
            10100000.0,
            10100000.0,
            10200000.0,
            10200000.0,
            10300000.0,
            10300000.0,
            10400000.0,
            10400000.0,
            10500000.0,
            10500000.0,
            10600000.0,
            10600000.0,
            10700000.0,
            10700000.0,
            10800000.0,
            10800000.0,
            10900000.0,
            10900000.0,
            11000000.0,
            11000000.0,
            11100000.0,
            11100000.0,
            11200000.0,
            11200000.0,
            11300000.0,
            11300000.0,
            11400000.0,
            11400000.0,
            11500000.0,
            11500000.0,
            11600000.0,
            11600000.0,
            11700000.0,
            11700000.0,
            11800000.0,
            11800000.0,
            11900000.0,
            11900000.0,
            12000000.0,
            12000000.0,
            12100000.0,
            12100000.0,
            12200000.0,
            12200000.0,
            12300000.0,
            12300000.0,
            12400000.0,
            12400000.0,
            12500000.0,
            12500000.0,
            12600000.0,
            12600000.0,
            12700000.0,
            12700000.0,
            12800000.0,
            12800000.0,
            12900000.0,
            12900000.0,
            13000000.0,
            13000000.0,
            13100000.0,
            13100000.0,
            13200000.0,
            13200000.0,
            13300000.0,
            13300000.0,
            13400000.0,
            13400000.0,
            13500000.0,
            13500000.0,
            13600000.0,
            13600000.0,
            13700000.0,
            13700000.0,
            13800000.0,
            13800000.0
          ],
          "units": "Hz"
        }
      ],
      "size": [
        256
      ],
      "name": "PSD_V2_S",
      "description": "Power spectral density before antenna calibration (S antenna)",
      "units": "V^2/Hz",
      "type": "double",
      "fill": "-1.0E31"
    },
    {
      "bins": [
        {
          "name": "FREQUENCY",
          "centers": [
            1080000.0,
            1120000.0,
            1180000.0,
            1220000.0,
            1280000.0,
            1330000.0,
            1380000.0,
            1430000.0,
            1480000.0,
            1530000.0,
            1580000.0,
            1630000.0,
            1680000.0,
            1730000.0,
            1780000.0,
            1830000.0,
            1880000.0,
            1930000.0,
            1980000.0,
            2030000.0,
            2080000.0,
            2120000.0,
            2180000.0,
            2220000.0,
            2280000.0,
            2320000.0,
            2380000.0,
            2420000.0,
            2480000.0,
            2520000.0,
            2580000.0,
            2630000.0,
            2680000.0,
            2730000.0,
            2780000.0,
            2830000.0,
            2880000.0,
            2930000.0,
            2980000.0,
            3030000.0,
            3080000.0,
            3130000.0,
            3180000.0,
            3230000.0,
            3280000.0,
            3330000.0,
            3380000.0,
            3430000.0,
            3480000.0,
            3530000.0,
            3580000.0,
            3630000.0,
            3680000.0,
            3730000.0,
            3780000.0,
            3830000.0,
            3880000.0,
            3930000.0,
            3980000.0,
            4030000.0,
            4080000.0,
            4120000.0,
            4180000.0,
            4220000.0,
            4280000.0,
            4320000.0,
            4380000.0,
            4420000.0,
            4480000.0,
            4520000.0,
            4580000.0,
            4620000.0,
            4680000.0,
            4720000.0,
            4780000.0,
            4820000.0,
            4880000.0,
            4920000.0,
            4980000.0,
            5020000.0,
            5080000.0,
            5120000.0,
            5180000.0,
            5230000.0,
            5280000.0,
            5330000.0,
            5380000.0,
            5430000.0,
            5480000.0,
            5530000.0,
            5580000.0,
            5630000.0,
            5680000.0,
            5730000.0,
            5780000.0,
            5830000.0,
            5880000.0,
            5930000.0,
            5980000.0,
            6030000.0,
            6080000.0,
            6130000.0,
            6180000.0,
            6230000.0,
            6280000.0,
            6330000.0,
            6380000.0,
            6430000.0,
            6480000.0,
            6530000.0,
            6580000.0,
            6630000.0,
            6680000.0,
            6730000.0,
            6780000.0,
            6830000.0,
            6880000.0,
            6930000.0,
            6980000.0,
            7030000.0,
            7080000.0,
            7130000.0,
            7180000.0,
            7230000.0,
            7280000.0,
            7330000.0,
            7380000.0,
            7430000.0,
            7480000.0,
            7530000.0,
            7580000.0,
            7630000.0,
            7680000.0,
            7730000.0,
            7780000.0,
            7830000.0,
            7880000.0,
            7930000.0,
            7980000.0,
            8030000.0,
            8080000.0,
            8130000.0,
            8180000.0,
            8220000.0,
            8280000.0,
            8320000.0,
            8380000.0,
            8420000.0,
            8480000.0,
            8520000.0,
            8580000.0,
            8620000.0,
            8680000.0,
            8720000.0,
            8780000.0,
            8820000.0,
            8880000.0,
            8920000.0,
            8980000.0,
            9020000.0,
            9080000.0,
            9120000.0,
            9180000.0,
            9220000.0,
            9280000.0,
            9320000.0,
            9380000.0,
            9420000.0,
            9480000.0,
            9520000.0,
            9580000.0,
            9620000.0,
            9680000.0,
            9720000.0,
            9780000.0,
            9820000.0,
            9880000.0,
            9920000.0,
            9980000.0,
            10000000.0,
            10100000.0,
            10100000.0,
            10200000.0,
            10200000.0,
            10300000.0,
            10300000.0,
            10400000.0,
            10400000.0,
            10500000.0,
            10500000.0,
            10600000.0,
            10600000.0,
            10700000.0,
            10700000.0,
            10800000.0,
            10800000.0,
            10900000.0,
            10900000.0,
            11000000.0,
            11000000.0,
            11100000.0,
            11100000.0,
            11200000.0,
            11200000.0,
            11300000.0,
            11300000.0,
            11400000.0,
            11400000.0,
            11500000.0,
            11500000.0,
            11600000.0,
            11600000.0,
            11700000.0,
            11700000.0,
            11800000.0,
            11800000.0,
            11900000.0,
            11900000.0,
            12000000.0,
            12000000.0,
            12100000.0,
            12100000.0,
            12200000.0,
            12200000.0,
            12300000.0,
            12300000.0,
            12400000.0,
            12400000.0,
            12500000.0,
            12500000.0,
            12600000.0,
            12600000.0,
            12700000.0,
            12700000.0,
            12800000.0,
            12800000.0,
            12900000.0,
            12900000.0,
            13000000.0,
            13000000.0,
            13100000.0,
            13100000.0,
            13200000.0,
            13200000.0,
            13300000.0,
            13300000.0,
            13400000.0,
            13400000.0,
            13500000.0,
            13500000.0,
            13600000.0,
            13600000.0,
            13700000.0,
            13700000.0,
            13800000.0,
            13800000.0
          ],
          "units": "Hz"
        }
      ],
      "size": [
        256
      ],
      "name": "PSD_V2_SP",
      "description": "Power spectral density before antenna calibration (SP antenna)",
      "units": "V^2/Hz",
      "type": "double",
      "fill": "-1.0E31"
    },
    {
      "bins": [
        {
          "name": "FREQUENCY",
          "centers": [
            1080000.0,
            1120000.0,
            1180000.0,
            1220000.0,
            1280000.0,
            1330000.0,
            1380000.0,
            1430000.0,
            1480000.0,
            1530000.0,
            1580000.0,
            1630000.0,
            1680000.0,
            1730000.0,
            1780000.0,
            1830000.0,
            1880000.0,
            1930000.0,
            1980000.0,
            2030000.0,
            2080000.0,
            2120000.0,
            2180000.0,
            2220000.0,
            2280000.0,
            2320000.0,
            2380000.0,
            2420000.0,
            2480000.0,
            2520000.0,
            2580000.0,
            2630000.0,
            2680000.0,
            2730000.0,
            2780000.0,
            2830000.0,
            2880000.0,
            2930000.0,
            2980000.0,
            3030000.0,
            3080000.0,
            3130000.0,
            3180000.0,
            3230000.0,
            3280000.0,
            3330000.0,
            3380000.0,
            3430000.0,
            3480000.0,
            3530000.0,
            3580000.0,
            3630000.0,
            3680000.0,
            3730000.0,
            3780000.0,
            3830000.0,
            3880000.0,
            3930000.0,
            3980000.0,
            4030000.0,
            4080000.0,
            4120000.0,
            4180000.0,
            4220000.0,
            4280000.0,
            4320000.0,
            4380000.0,
            4420000.0,
            4480000.0,
            4520000.0,
            4580000.0,
            4620000.0,
            4680000.0,
            4720000.0,
            4780000.0,
            4820000.0,
            4880000.0,
            4920000.0,
            4980000.0,
            5020000.0,
            5080000.0,
            5120000.0,
            5180000.0,
            5230000.0,
            5280000.0,
            5330000.0,
            5380000.0,
            5430000.0,
            5480000.0,
            5530000.0,
            5580000.0,
            5630000.0,
            5680000.0,
            5730000.0,
            5780000.0,
            5830000.0,
            5880000.0,
            5930000.0,
            5980000.0,
            6030000.0,
            6080000.0,
            6130000.0,
            6180000.0,
            6230000.0,
            6280000.0,
            6330000.0,
            6380000.0,
            6430000.0,
            6480000.0,
            6530000.0,
            6580000.0,
            6630000.0,
            6680000.0,
            6730000.0,
            6780000.0,
            6830000.0,
            6880000.0,
            6930000.0,
            6980000.0,
            7030000.0,
            7080000.0,
            7130000.0,
            7180000.0,
            7230000.0,
            7280000.0,
            7330000.0,
            7380000.0,
            7430000.0,
            7480000.0,
            7530000.0,
            7580000.0,
            7630000.0,
            7680000.0,
            7730000.0,
            7780000.0,
            7830000.0,
            7880000.0,
            7930000.0,
            7980000.0,
            8030000.0,
            8080000.0,
            8130000.0,
            8180000.0,
            8220000.0,
            8280000.0,
            8320000.0,
            8380000.0,
            8420000.0,
            8480000.0,
            8520000.0,
            8580000.0,
            8620000.0,
            8680000.0,
            8720000.0,
            8780000.0,
            8820000.0,
            8880000.0,
            8920000.0,
            8980000.0,
            9020000.0,
            9080000.0,
            9120000.0,
            9180000.0,
            9220000.0,
            9280000.0,
            9320000.0,
            9380000.0,
            9420000.0,
            9480000.0,
            9520000.0,
            9580000.0,
            9620000.0,
            9680000.0,
            9720000.0,
            9780000.0,
            9820000.0,
            9880000.0,
            9920000.0,
            9980000.0,
            10000000.0,
            10100000.0,
            10100000.0,
            10200000.0,
            10200000.0,
            10300000.0,
            10300000.0,
            10400000.0,
            10400000.0,
            10500000.0,
            10500000.0,
            10600000.0,
            10600000.0,
            10700000.0,
            10700000.0,
            10800000.0,
            10800000.0,
            10900000.0,
            10900000.0,
            11000000.0,
            11000000.0,
            11100000.0,
            11100000.0,
            11200000.0,
            11200000.0,
            11300000.0,
            11300000.0,
            11400000.0,
            11400000.0,
            11500000.0,
            11500000.0,
            11600000.0,
            11600000.0,
            11700000.0,
            11700000.0,
            11800000.0,
            11800000.0,
            11900000.0,
            11900000.0,
            12000000.0,
            12000000.0,
            12100000.0,
            12100000.0,
            12200000.0,
            12200000.0,
            12300000.0,
            12300000.0,
            12400000.0,
            12400000.0,
            12500000.0,
            12500000.0,
            12600000.0,
            12600000.0,
            12700000.0,
            12700000.0,
            12800000.0,
            12800000.0,
            12900000.0,
            12900000.0,
            13000000.0,
            13000000.0,
            13100000.0,
            13100000.0,
            13200000.0,
            13200000.0,
            13300000.0,
            13300000.0,
            13400000.0,
            13400000.0,
            13500000.0,
            13500000.0,
            13600000.0,
            13600000.0,
            13700000.0,
            13700000.0,
            13800000.0,
            13800000.0
          ],
          "units": "Hz"
        }
      ],
      "size": [
        256
      ],
      "name": "PSD_V2_Z",
      "description": "Power spectral density before antenna calibration (Z antenna)",
      "units": "V^2/Hz",
      "type": "double",
      "fill": "-1.0E31"
    }
  ],
  "startDate": "1994-11-12T00:00:08Z",
  "stopDate": "2026-02-02T23:59:41Z",
  "status": {
    "code": 1200,
    "message": "OK"
  }
}
